The mean spectrum is: 
0.248043 0.247386 0.249345 0.249741 0.248705 0.249467 0.24653 0.248036 0.247556 0.247832 0.249005 0.247986 0.377705 0.250161 0.248882 0.248558 0.246514 0.246506 0.247771 0.249944 0.248756 0.247407 0.247049 0.248151 0.249166 0.248279 0.246622 0.2484 0.248627 0.248263 0.24862 0.247802 0.250339 0.247946 0.247936 0.250442 0.24882 0.247198 0.248489 0.248028 0.247238 0.248606 0.246853 0.247921 0.246647 0.248107 0.247448 0.249417 0.25008 0.249355 